  STEP   TOTAL TIME             LOCATION OF OBSERVATION POINTS (K,I,J)
                      1   1   1     1   1  11     1   1  21     1   1  41     1   1  81
     1    20.833        1.0000       3.81552E-06   7.27909E-12   2.64926E-23    0.0000    
     2    41.667        1.0000       4.65190E-05   1.41430E-10   8.20652E-22   1.82169E-44
     3    62.500        1.0000       2.67819E-04   1.43878E-09   1.30484E-20   5.25487E-43
     4    83.333        1.0000       1.06922E-03   9.74983E-09   1.40275E-19   9.61851E-42
     5    104.17        1.0000       3.22490E-03   6.22620E-08   1.18879E-18   1.35280E-40
     6    125.00        1.0000       8.06927E-03   2.77020E-07   8.32054E-18   1.54770E-39
     7    145.83        1.0000       1.71072E-02   1.35208E-06   5.03811E-17   1.50073E-38
     8    166.67        1.0000       3.25665E-02   6.18322E-06   2.75127E-16   1.26948E-37
     9    187.50        1.0000       5.46200E-02   1.92989E-05   1.36732E-15   9.57056E-37
    10    208.33        1.0000       8.72033E-02   4.57663E-05   6.27873E-15   6.53627E-36
    11    229.17        1.0000       0.12432       1.33108E-04   2.66022E-14   4.09542E-35
    12    250.00        1.0000       0.17286       2.70329E-04   1.05574E-13   2.37752E-34
    13    270.83        1.0000       0.22635       5.80900E-04   3.92178E-13   1.28875E-33
    14    291.67        1.0000       0.27566       1.11705E-03   1.38806E-12   6.56338E-33
    15    312.50        1.0000       0.34763       2.03938E-03   4.66266E-12   3.15666E-32
    16    333.33        1.0000       0.38458       3.62484E-03   1.51749E-11   1.44003E-31
    17    354.17        1.0000       0.46740       5.74570E-03   4.72944E-11   6.25518E-31
    18    375.00        1.0000       0.48886       9.72850E-03   1.45102E-10   2.59635E-30
    19    395.83        1.0000       0.55924       1.36683E-02   4.27065E-10   1.03314E-29
    20    416.67        1.0000       0.59646       2.16810E-02   1.26006E-09   3.95332E-29
    21    437.50        1.0000       0.63628       2.91974E-02   3.53537E-09   1.45888E-28
    22    458.33        1.0000       0.68436       4.11750E-02   1.02193E-08   5.20616E-28
    23    479.17        1.0000       0.70889       5.44806E-02   2.73314E-08   1.80124E-27
    24    500.00        1.0000       0.75024       7.12597E-02   7.92021E-08   6.05672E-27
    25    520.83        1.0000       0.77304       9.05534E-02   1.98941E-07   1.98381E-26
    26    541.67        1.0000       0.80189       0.11320       6.00244E-07   6.34292E-26
    27    562.50        1.0000       0.82454       0.13743       1.35428E-06   1.98367E-25
    28    583.33        1.0000       0.84430       0.16644       3.57784E-06   6.07911E-25
    29    604.17        1.0000       0.86415       0.19434       6.89696E-06   1.82854E-24
    30    625.00        1.0000       0.87892       0.22819       1.58627E-05   5.40541E-24
    31    645.83        1.0000       0.89461       0.26028       3.00475E-05   1.57180E-23
    32    666.67        1.0000       0.90644       0.29456       5.25145E-05   4.49793E-23
    33    687.50        1.0000       0.91832       0.33279       8.76885E-05   1.26694E-22
    34    708.33        1.0000       0.92786       0.36305       1.41853E-04   3.51293E-22
    35    729.17        1.0000       0.93685       0.40746       2.23169E-04   9.58976E-22
    36    750.00        1.0000       0.94441       0.43249       3.42789E-04   2.57799E-21
    37    770.83        1.0000       0.95129       0.48041       5.15460E-04   6.82714E-21
    38    791.67        1.0000       0.95717       0.50024       7.59872E-04   1.78182E-20
    39    812.50        1.0000       0.96248       0.54508       1.09804E-03   4.58560E-20
    40    833.33        1.0000       0.96702       0.56928       1.56408E-03   1.16454E-19
    41    854.17        1.0000       0.97112       0.60271       2.17792E-03   2.92091E-19
    42    875.00        1.0000       0.97461       0.63362       3.01057E-03   7.24234E-19
    43    895.83        1.0000       0.97777       0.65703       4.05753E-03   1.77659E-18
    44    916.67        1.0000       0.98046       0.68926       5.43842E-03   4.31480E-18
    45    937.50        1.0000       0.98289       0.70870       7.16300E-03   1.03835E-17
    46    958.33        1.0000       0.98497       0.73653       9.24726E-03   2.47818E-17
    47    979.17        1.0000       0.98684       0.75582       1.20515E-02   5.87091E-17
    48    1000.0        1.0000       0.98844       0.77754       1.48992E-02   1.38147E-16
    49    1020.8        1.0000       0.98987       0.79673       1.93180E-02   3.22992E-16
    50    1041.7        1.0000       0.99110       0.81370       2.30181E-02   7.50366E-16
    51    1062.5        1.0000       0.99220       0.83130       2.93804E-02   1.73148E-15
    52    1083.3        1.0000       0.99315       0.84534       3.45117E-02   3.96628E-15
    53    1104.2        1.0000       0.99400       0.86035       4.23251E-02   9.01508E-15
    54    1125.0        1.0000       0.99473       0.87249       4.99974E-02   2.03276E-14
    55    1145.8        1.0000       0.99538       0.88483       5.89348E-02   4.54543E-14
    56    1166.7        1.0000       0.99594       0.89537       6.97146E-02   1.00799E-13
    57    1187.5        1.0000       0.99644       0.90546       7.97305E-02   2.21774E-13
    58    1208.3        1.0000       0.99687       0.91443       9.37309E-02   4.84430E-13
    59    1229.2        1.0000       0.99726       0.92274       0.10518       1.05038E-12
    60    1250.0        1.0000       0.99759       0.93023       0.12180       2.26282E-12
    61    1270.8        1.0000       0.99788       0.93709       0.13561       4.84762E-12
    62    1291.7        1.0000       0.99814       0.94328       0.15402       1.03367E-11
    63    1312.5        1.0000       0.99837       0.94895       0.17032       2.19042E-11
    64    1333.3        1.0000       0.99857       0.95402       0.19040       4.62526E-11
    65    1354.2        1.0000       0.99874       0.95868       0.20868       9.73486E-11
    66    1375.0        1.0000       0.99889       0.96283       0.23055       2.04393E-10
    67    1395.8        1.0000       0.99903       0.96663       0.25026       4.25661E-10
    68    1416.7        1.0000       0.99915       0.97002       0.27354       8.88667E-10
    69    1437.5        1.0000       0.99925       0.97311       0.29483       1.84897E-09
    70    1458.3        1.0000       0.99934       0.97587       0.31826       3.84528E-09
    71    1479.2        1.0000       0.99942       0.97838       0.34189       7.85660E-09
    72    1500.0        1.0000       0.99949       0.98062       0.36394       1.64441E-08
    73    1520.8        1.0000       0.99955       0.98265       0.39042       3.37734E-08
    74    1541.7        1.0000       0.99961       0.98446       0.41026       6.99676E-08
    75    1562.5        1.0000       0.99965       0.98609       0.43911       1.37893E-07
    76    1583.3        1.0000       0.99969       0.98756       0.45695       3.02668E-07
    77    1604.2        1.0000       0.99973       0.98887       0.48701       5.90653E-07
    78    1625.0        1.0000       0.99976       0.99005       0.50318       1.25238E-06
    79    1645.8        1.0000       0.99979       0.99111       0.53232       2.22460E-06
    80    1666.7        1.0000       0.99982       0.99205       0.54978       6.02496E-06
    81    1687.5        1.0000       0.99984       0.99290       0.57487       8.91041E-06
    82    1708.3        1.0000       0.99986       0.99366       0.59527       1.53119E-05
    83    1729.2        1.0000       0.99987       0.99434       0.61551       2.29576E-05
    84    1750.0        1.0000       0.99989       0.99495       0.63797       3.34009E-05
    85    1770.8        1.0000       0.99990       0.99550       0.65487       4.70709E-05
    86    1791.7        1.0000       0.99991       0.99598       0.67704       6.49214E-05
    87    1812.5        1.0000       0.99992       0.99642       0.69275       8.79519E-05
    88    1833.3        1.0000       0.99993       0.99680       0.71264       1.17552E-04
    89    1854.2        1.0000       0.99993       0.99715       0.72838       1.55269E-04
    90    1875.0        1.0000       0.99994       0.99746       0.74534       2.03052E-04
    91    1895.8        1.0000       0.99994       0.99774       0.76106       2.63165E-04
    92    1916.7        1.0000       0.99995       0.99798       0.77554       3.38307E-04
    93    1937.5        1.0000       0.99995       0.99820       0.79055       4.31650E-04
    94    1958.3        1.0000       0.99995       0.99840       0.80332       5.46861E-04
    95    1979.2        1.0000       0.99996       0.99857       0.81697       6.88221E-04
    96    2000.0        1.0000       0.99996       0.99873       0.82858       8.60606E-04
