  STEP   TOTAL TIME             LOCATION OF OBSERVATION POINTS (K,I,J)
                      1   1  51
     1    0.0000        0.0000    
     2    1.5994       3.19879E-03
     3    3.1988       6.39760E-03
     4    4.7982       9.59647E-03
     5    6.3976       1.27957E-02
     6    7.9970       1.59963E-02
     7    9.5964       1.92007E-02
     8    11.196       2.24148E-02
     9    12.795       2.56500E-02
    10    14.395       2.89261E-02
    11    15.994       3.22746E-02
    12    17.593       3.57406E-02
    13    19.193       3.93844E-02
    14    20.792       4.32809E-02
    15    22.392       4.75173E-02
    16    23.991       5.21898E-02
    17    25.590       5.73990E-02
    18    27.190       6.32445E-02
    19    28.789       6.98203E-02
    20    30.389       7.72104E-02
    21    31.988       8.54852E-02
    22    33.587       9.46992E-02
    23    35.187       0.10489    
    24    36.786       0.11608    
    25    38.386       0.12826    
    26    39.985       0.14143    
    27    41.584       0.15556    
    28    43.184       0.17061    
    29    44.783       0.18652    
    30    46.382       0.20324    
    31    47.982       0.22070    
    32    49.581       0.23883    
    33    51.181       0.25755    
    34    52.780       0.27680    
    35    54.379       0.29649    
    36    55.979       0.31656    
    37    57.578       0.33692    
    38    59.178       0.35751    
    39    60.777       0.37826    
    40    62.376       0.39911    
    41    63.976       0.42000    
    42    65.575       0.44087    
    43    67.175       0.46166    
    44    68.774       0.48234    
    45    70.373       0.50286    
    46    71.973       0.52317    
    47    73.572       0.54325    
    48    75.172       0.56306    
    49    76.771       0.58257    
    50    78.370       0.60176    
    51    79.970       0.62061    
    52    81.569       0.63909    
    53    83.169       0.65720    
    54    84.768       0.67491    
    55    86.367       0.69223    
    56    87.967       0.70913    
    57    89.566       0.72561    
    58    91.166       0.74168    
    59    92.765       0.75732    
    60    94.364       0.77254    
    61    95.964       0.78733    
    62    97.563       0.80169    
    63    99.163       0.81564    
    64    100.76       0.82917    
    65    102.36       0.84229    
    66    103.96       0.85499    
    67    105.56       0.86730    
    68    107.16       0.87921    
    69    108.76       0.89073    
    70    110.36       0.90188    
    71    111.96       0.91265    
    72    113.56       0.92305    
    73    115.16       0.93310    
    74    116.76       0.94280    
    75    118.36       0.95216    
    76    119.95       0.96119    
    77    121.55       0.96990    
    78    123.15       0.97830    
    79    124.75       0.98639    
    80    126.35       0.99418    
    81    127.95        1.0017    
    82    129.55        1.0089    
    83    131.15        1.0159    
    84    132.75        1.0226    
    85    134.35        1.0290    
    86    135.95        1.0352    
    87    137.55        1.0412    
    88    139.15        1.0470    
    89    140.75        1.0525    
    90    142.35        1.0578    
    91    143.95        1.0629    
    92    145.55        1.0678    
    93    147.14        1.0725    
    94    148.74        1.0770    
    95    150.34        1.0814    
    96    151.94        1.0856    
    97    153.54        1.0896    
    98    155.14        1.0934    
    99    156.74        1.0971    
   100    158.34        1.1007    
   101    159.94        1.1041    
   102    160.00        1.1042    
     1    161.60        1.1075    
     2    163.20        1.1106    
     3    164.80        1.1136    
     4    166.40        1.1165    
     5    168.00        1.1193    
     6    169.60        1.1219    
     7    171.20        1.1244    
     8    172.80        1.1269    
     9    174.39        1.1291    
    10    175.99        1.1312    
    11    177.59        1.1331    
    12    179.19        1.1347    
    13    180.79        1.1360    
    14    182.39        1.1369    
    15    183.99        1.1372    
    16    185.59        1.1369    
    17    187.19        1.1360    
    18    188.79        1.1342    
    19    190.39        1.1315    
    20    191.99        1.1278    
    21    193.59        1.1231    
    22    195.19        1.1174    
    23    196.79        1.1106    
    24    198.39        1.1027    
    25    199.98        1.0938    
    26    201.58        1.0838    
    27    203.18        1.0728    
    28    204.78        1.0609    
    29    206.38        1.0481    
    30    207.98        1.0344    
    31    209.58        1.0200    
    32    211.18        1.0049    
    33    212.78       0.98920    
    34    214.38       0.97296    
    35    215.98       0.95626    
    36    217.58       0.93917    
    37    219.18       0.92177    
    38    220.78       0.90412    
    39    222.38       0.88628    
    40    223.98       0.86832    
    41    225.58       0.85029    
    42    227.17       0.83225    
    43    228.77       0.81424    
    44    230.37       0.79631    
    45    231.97       0.77850    
    46    233.57       0.76085    
    47    235.17       0.74339    
    48    236.77       0.72614    
    49    238.37       0.70915    
    50    239.97       0.69243    
    51    241.57       0.67599    
    52    243.17       0.65987    
    53    244.77       0.64406    
    54    246.37       0.62859    
    55    247.97       0.61347    
    56    249.57       0.59870    
    57    251.17       0.58429    
    58    252.76       0.57024    
    59    254.36       0.55656    
    60    255.96       0.54325    
    61    257.56       0.53031    
    62    259.16       0.51773    
    63    260.76       0.50553    
    64    262.36       0.49368    
    65    263.96       0.48219    
    66    265.56       0.47106    
    67    267.16       0.46028    
    68    268.76       0.44985    
    69    270.36       0.43975    
    70    271.96       0.42999    
    71    273.56       0.42055    
    72    275.16       0.41143    
    73    276.76       0.40262    
    74    278.36       0.39412    
    75    279.95       0.38591    
    76    281.55       0.37800    
    77    283.15       0.37036    
    78    284.75       0.36300    
    79    286.35       0.35590    
    80    287.95       0.34906    
    81    289.55       0.34248    
    82    291.15       0.33613    
    83    292.75       0.33003    
    84    294.35       0.32415    
    85    295.95       0.31849    
    86    297.55       0.31304    
    87    299.15       0.30781    
    88    300.75       0.30277    
    89    302.35       0.29793    
    90    303.95       0.29327    
    91    305.55       0.28879    
    92    307.14       0.28449    
    93    308.74       0.28036    
    94    310.34       0.27638    
    95    311.94       0.27257    
    96    313.54       0.26890    
    97    315.14       0.26538    
    98    316.74       0.26200    
    99    318.34       0.25875    
   100    319.94       0.25564    
   101    321.54       0.25265    
   102    323.14       0.24977    
   103    324.74       0.24702    
   104    326.34       0.24437    
   105    327.94       0.24184    
   106    329.54       0.23940    
   107    331.14       0.23706    
   108    332.73       0.23482    
   109    334.33       0.23267    
   110    335.93       0.23061    
   111    337.53       0.22863    
   112    339.13       0.22673    
   113    340.73       0.22491    
   114    342.33       0.22317    
   115    343.93       0.22150    
   116    345.53       0.21989    
   117    347.13       0.21835    
   118    348.73       0.21688    
   119    350.33       0.21547    
   120    351.93       0.21411    
   121    353.53       0.21281    
   122    355.13       0.21157    
   123    356.73       0.21038    
   124    358.33       0.20923    
   125    359.92       0.20814    
   126    361.52       0.20709    
   127    363.12       0.20608    
   128    364.72       0.20511    
   129    366.32       0.20419    
   130    367.92       0.20330    
   131    369.52       0.20246    
   132    371.12       0.20164    
   133    372.72       0.20086    
   134    374.32       0.20012    
   135    375.92       0.19940    
   136    377.52       0.19872    
   137    379.12       0.19806    
   138    380.72       0.19743    
   139    382.32       0.19683    
   140    383.92       0.19625    
   141    385.51       0.19570    
   142    387.11       0.19517    
   143    388.71       0.19466    
   144    390.31       0.19418    
   145    391.91       0.19371    
   146    393.51       0.19326    
   147    395.11       0.19284    
   148    396.71       0.19243    
   149    398.31       0.19204    
   150    399.91       0.19166    
   151    401.51       0.19130    
   152    403.11       0.19096    
   153    404.71       0.19063    
   154    406.31       0.19031    
   155    407.91       0.19001    
   156    409.51       0.18972    
   157    411.11       0.18944    
   158    412.70       0.18918    
   159    414.30       0.18892    
   160    415.90       0.18868    
   161    417.50       0.18845    
   162    419.10       0.18822    
   163    420.70       0.18801    
   164    422.30       0.18781    
   165    423.90       0.18761    
   166    425.50       0.18742    
   167    427.10       0.18724    
   168    428.70       0.18707    
   169    430.30       0.18690    
   170    431.90       0.18675    
   171    433.50       0.18660    
   172    435.10       0.18645    
   173    436.70       0.18631    
   174    438.29       0.18618    
   175    439.89       0.18605    
   176    441.49       0.18593    
   177    443.09       0.18581    
   178    444.69       0.18570    
   179    446.29       0.18560    
   180    447.89       0.18549    
   181    449.49       0.18539    
   182    451.09       0.18530    
   183    452.69       0.18521    
   184    454.29       0.18512    
   185    455.89       0.18504    
   186    457.49       0.18496    
   187    459.09       0.18489    
   188    460.69       0.18482    
   189    462.29       0.18475    
   190    463.89       0.18468    
   191    465.48       0.18462    
   192    467.08       0.18456    
   193    468.68       0.18450    
   194    470.28       0.18444    
   195    471.88       0.18439    
   196    473.48       0.18434    
   197    475.08       0.18429    
   198    476.68       0.18424    
   199    478.28       0.18420    
   200    479.88       0.18415    
   201    480.00       0.18415    
     1    481.60       0.18411    
     2    483.20       0.18407    
     3    484.80       0.18403    
     4    486.40       0.18400    
     5    488.00       0.18396    
     6    489.60       0.18393    
     7    491.20       0.18390    
     8    492.80       0.18387    
     9    494.39       0.18384    
    10    495.99       0.18381    
    11    497.59       0.18378    
    12    499.19       0.18376    
    13    500.79       0.18373    
    14    502.39       0.18371    
    15    503.99       0.18369    
    16    505.59       0.18367    
    17    507.19       0.18365    
    18    508.79       0.18363    
    19    510.39       0.18361    
    20    511.99       0.18359    
    21    513.59       0.18357    
    22    515.19       0.18356    
    23    516.79       0.18354    
    24    518.39       0.18353    
    25    519.99       0.18351    
    26    521.58       0.18350    
    27    523.18       0.18348    
    28    524.78       0.18347    
    29    526.38       0.18346    
    30    527.98       0.18345    
    31    529.58       0.18344    
    32    531.18       0.18343    
    33    532.78       0.18342    
    34    534.38       0.18341    
    35    535.98       0.18340    
    36    537.58       0.18339    
    37    539.18       0.18338    
    38    540.78       0.18337    
    39    542.38       0.18336    
    40    543.98       0.18335    
    41    545.58       0.18335    
    42    547.18       0.18334    
    43    548.77       0.18333    
    44    550.37       0.18333    
    45    551.97       0.18332    
    46    553.57       0.18332    
    47    555.17       0.18331    
    48    556.77       0.18331    
    49    558.37       0.18330    
    50    559.97       0.18330    
    51    561.57       0.18329    
    52    563.17       0.18329    
    53    564.77       0.18328    
    54    566.37       0.18328    
    55    567.97       0.18327    
    56    569.57       0.18327    
    57    571.17       0.18327    
    58    572.77       0.18326    
    59    574.37       0.18326    
    60    575.96       0.18326    
    61    577.56       0.18325    
    62    579.16       0.18325    
    63    580.76       0.18325    
    64    582.36       0.18325    
    65    583.96       0.18324    
    66    585.56       0.18324    
    67    587.16       0.18324    
    68    588.76       0.18324    
    69    590.36       0.18323    
    70    591.96       0.18323    
    71    593.56       0.18323    
    72    595.16       0.18323    
    73    596.76       0.18323    
    74    598.36       0.18323    
    75    599.96       0.18322    
    76    601.56       0.18322    
    77    603.16       0.18322    
    78    604.75       0.18322    
    79    606.35       0.18322    
    80    607.95       0.18322    
    81    609.55       0.18322    
    82    611.15       0.18321    
    83    612.75       0.18321    
    84    614.35       0.18321    
    85    615.95       0.18321    
    86    617.55       0.18321    
    87    619.15       0.18321    
    88    620.75       0.18321    
    89    622.35       0.18321    
    90    623.95       0.18321    
    91    625.55       0.18321    
    92    627.15       0.18320    
    93    628.75       0.18320    
    94    630.35       0.18320    
    95    631.94       0.18320    
    96    633.54       0.18320    
    97    635.14       0.18320    
    98    636.74       0.18320    
    99    638.34       0.18320    
   100    639.94       0.18320    
   101    641.54       0.18320    
   102    643.14       0.18320    
   103    644.74       0.18320    
   104    646.34       0.18320    
   105    647.94       0.18320    
   106    649.54       0.18320    
   107    651.14       0.18320    
   108    652.74       0.18320    
   109    654.34       0.18320    
   110    655.94       0.18320    
   111    657.54       0.18320    
   112    659.14       0.18319    
   113    660.73       0.18319    
   114    662.33       0.18319    
   115    663.93       0.18319    
   116    665.53       0.18319    
   117    667.13       0.18319    
   118    668.73       0.18319    
   119    670.33       0.18319    
   120    671.93       0.18319    
   121    673.53       0.18319    
   122    675.13       0.18319    
   123    676.73       0.18319    
   124    678.33       0.18319    
   125    679.93       0.18319    
   126    681.53       0.18319    
   127    683.13       0.18319    
   128    684.73       0.18319    
   129    686.33       0.18319    
   130    687.92       0.18319    
   131    689.52       0.18319    
   132    691.12       0.18319    
   133    692.72       0.18319    
   134    694.32       0.18319    
   135    695.92       0.18319    
   136    697.52       0.18319    
   137    699.12       0.18319    
   138    700.72       0.18319    
   139    702.32       0.18319    
   140    703.92       0.18319    
   141    705.52       0.18319    
   142    707.12       0.18319    
   143    708.72       0.18319    
   144    710.32       0.18319    
   145    711.92       0.18319    
   146    713.52       0.18319    
   147    715.12       0.18319    
   148    716.71       0.18319    
   149    718.31       0.18319    
   150    719.91       0.18319    
   151    721.51       0.18319    
   152    723.11       0.18319    
   153    724.71       0.18319    
   154    726.31       0.18319    
   155    727.91       0.18319    
   156    729.51       0.18319    
   157    731.11       0.18319    
   158    732.71       0.18319    
   159    734.31       0.18319    
   160    735.91       0.18319    
   161    737.51       0.18319    
   162    739.11       0.18319    
   163    740.71       0.18319    
   164    742.31       0.18319    
   165    743.90       0.18319    
   166    745.50       0.18319    
   167    747.10       0.18319    
   168    748.70       0.18319    
   169    750.30       0.18319    
   170    751.90       0.18319    
   171    753.50       0.18319    
   172    755.10       0.18319    
   173    756.70       0.18319    
   174    758.30       0.18319    
   175    759.90       0.18319    
   176    761.50       0.18319    
   177    763.10       0.18319    
   178    764.70       0.18319    
   179    766.30       0.18319    
   180    767.90       0.18319    
   181    769.50       0.18319    
   182    771.09       0.18319    
   183    772.69       0.18319    
   184    774.29       0.18319    
   185    775.89       0.18319    
   186    777.49       0.18319    
   187    779.09       0.18319    
   188    780.69       0.18319    
   189    782.29       0.18319    
   190    783.89       0.18319    
   191    785.49       0.18319    
   192    787.09       0.18319    
   193    788.69       0.18319    
   194    790.29       0.18319    
   195    791.89       0.18319    
   196    793.49       0.18319    
   197    795.09       0.18319    
   198    796.69       0.18319    
   199    798.29       0.18319    
   200    799.88       0.18319    
   201    801.48       0.18319    
   202    803.08       0.18319    
   203    804.68       0.18319    
   204    806.28       0.18319    
   205    807.88       0.18319    
   206    809.48       0.18319    
   207    811.08       0.18319    
   208    812.68       0.18319    
   209    814.28       0.18319    
   210    815.88       0.18319    
   211    817.48       0.18319    
   212    819.08       0.18319    
   213    820.68       0.18319    
   214    822.28       0.18319    
   215    823.88       0.18319    
   216    825.48       0.18319    
   217    827.07       0.18319    
   218    828.67       0.18319    
   219    830.27       0.18319    
   220    831.87       0.18319    
   221    833.47       0.18319    
   222    835.07       0.18319    
   223    836.67       0.18319    
   224    838.27       0.18319    
   225    839.87       0.18319    
   226    841.47       0.18319    
   227    843.07       0.18319    
   228    844.67       0.18319    
   229    846.27       0.18319    
   230    847.87       0.18319    
   231    849.47       0.18319    
   232    851.07       0.18319    
   233    852.67       0.18319    
   234    854.27       0.18319    
   235    855.86       0.18319    
   236    857.46       0.18319    
   237    859.06       0.18319    
   238    860.66       0.18319    
   239    862.26       0.18319    
   240    863.86       0.18319    
   241    865.46       0.18319    
   242    867.06       0.18319    
   243    868.66       0.18319    
   244    870.26       0.18319    
   245    871.86       0.18319    
   246    873.46       0.18319    
   247    875.06       0.18319    
   248    876.66       0.18319    
   249    878.26       0.18319    
   250    879.86       0.18319    
   251    881.46       0.18319    
   252    883.05       0.18319    
   253    884.65       0.18319    
   254    886.25       0.18319    
   255    887.85       0.18319    
   256    889.45       0.18319    
   257    891.05       0.18319    
   258    892.65       0.18319    
   259    894.25       0.18319    
   260    895.85       0.18319    
   261    897.45       0.18319    
   262    899.05       0.18319    
   263    900.65       0.18319    
   264    902.25       0.18319    
   265    903.85       0.18319    
   266    905.45       0.18319    
   267    907.05       0.18319    
   268    908.65       0.18319    
   269    910.25       0.18319    
   270    911.84       0.18319    
   271    913.44       0.18319    
   272    915.04       0.18319    
   273    916.64       0.18319    
   274    918.24       0.18319    
   275    919.84       0.18319    
   276    921.44       0.18319    
   277    923.04       0.18319    
   278    924.64       0.18319    
   279    926.24       0.18319    
   280    927.84       0.18319    
   281    929.44       0.18319    
   282    931.04       0.18319    
   283    932.64       0.18319    
   284    934.24       0.18319    
   285    935.84       0.18319    
   286    937.44       0.18319    
   287    939.03       0.18319    
   288    940.63       0.18319    
   289    942.23       0.18319    
   290    943.83       0.18319    
   291    945.43       0.18319    
   292    947.03       0.18319    
   293    948.63       0.18319    
   294    950.23       0.18319    
   295    951.83       0.18319    
   296    953.43       0.18319    
   297    955.03       0.18319    
   298    956.63       0.18319    
   299    958.23       0.18319    
   300    959.83       0.18319    
   301    961.43       0.18319    
   302    963.03       0.18319    
   303    964.63       0.18319    
   304    966.22       0.18319    
   305    967.82       0.18319    
   306    969.42       0.18319    
   307    971.02       0.18319    
   308    972.62       0.18319    
   309    974.22       0.18319    
   310    975.82       0.18319    
   311    977.42       0.18319    
   312    979.02       0.18319    
   313    980.62       0.18319    
   314    982.22       0.18319    
   315    983.82       0.18319    
   316    985.42       0.18319    
   317    987.02       0.18319    
   318    988.62       0.18319    
   319    990.22       0.18319    
   320    991.82       0.18319    
   321    993.42       0.18319    
   322    995.01       0.18319    
   323    996.61       0.18319    
   324    998.21       0.18319    
   325    999.81       0.18319    
   326    1000.0       0.18319    
   327    1001.6       0.18319    
   328    1003.2       0.18319    
   329    1004.8       0.18319    
   330    1006.4       0.18319    
   331    1008.0       0.18319    
   332    1009.6       0.18319    
   333    1011.2       0.18319    
   334    1012.8       0.18319    
   335    1014.4       0.18319    
   336    1016.0       0.18319    
   337    1017.6       0.18319    
   338    1019.2       0.18319    
   339    1020.8       0.18319    
   340    1022.4       0.18319    
   341    1024.0       0.18319    
   342    1025.6       0.18319    
   343    1027.2       0.18319    
   344    1028.8       0.18319    
   345    1030.4       0.18319    
   346    1032.0       0.18319    
   347    1033.6       0.18319    
   348    1035.2       0.18319    
   349    1036.8       0.18319    
   350    1038.4       0.18319    
   351    1040.0       0.18319    
   352    1041.6       0.18319    
   353    1043.2       0.18319    
   354    1044.8       0.18319    
   355    1046.4       0.18319    
   356    1048.0       0.18319    
   357    1049.6       0.18319    
   358    1051.2       0.18319    
   359    1052.8       0.18319    
   360    1054.4       0.18319    
   361    1056.0       0.18319    
   362    1057.6       0.18319    
   363    1059.2       0.18318    
   364    1060.8       0.18318    
   365    1062.4       0.18318    
   366    1064.0       0.18318    
   367    1065.6       0.18318    
   368    1067.2       0.18318    
   369    1068.8       0.18318    
   370    1070.4       0.18318    
   371    1072.0       0.18318    
   372    1073.6       0.18318    
   373    1075.2       0.18319    
   374    1076.8       0.18319    
   375    1078.4       0.18319    
   376    1080.0       0.18319    
   377    1081.6       0.18319    
   378    1083.2       0.18319    
   379    1084.8       0.18319    
   380    1086.4       0.18319    
   381    1088.0       0.18319    
   382    1089.6       0.18319    
   383    1091.2       0.18319    
   384    1092.8       0.18319    
   385    1094.4       0.18319    
   386    1096.0       0.18319    
   387    1097.6       0.18319    
   388    1099.2       0.18319    
   389    1100.8       0.18319    
   390    1102.4       0.18319    
   391    1104.0       0.18319    
   392    1105.6       0.18319    
   393    1107.2       0.18319    
   394    1108.8       0.18319    
   395    1110.4       0.18319    
   396    1112.0       0.18319    
   397    1113.6       0.18319    
   398    1115.2       0.18319    
   399    1116.8       0.18319    
   400    1118.4       0.18319    
   401    1120.0       0.18319    
   402    1121.6       0.18319    
   403    1123.2       0.18319    
   404    1124.8       0.18319    
   405    1126.4       0.18319    
   406    1128.0       0.18319    
   407    1129.5       0.18319    
   408    1131.1       0.18319    
   409    1132.7       0.18319    
   410    1134.3       0.18319    
   411    1135.9       0.18319    
   412    1137.5       0.18319    
   413    1139.1       0.18319    
   414    1140.7       0.18319    
   415    1142.3       0.18319    
   416    1143.9       0.18319    
   417    1145.5       0.18319    
   418    1147.1       0.18319    
   419    1148.7       0.18319    
   420    1150.3       0.18319    
   421    1151.9       0.18319    
   422    1153.5       0.18319    
   423    1155.1       0.18319    
   424    1156.7       0.18319    
   425    1158.3       0.18319    
   426    1159.9       0.18319    
   427    1161.5       0.18319    
   428    1163.1       0.18319    
   429    1164.7       0.18319    
   430    1166.3       0.18319    
   431    1167.9       0.18319    
   432    1169.5       0.18319    
   433    1171.1       0.18319    
   434    1172.7       0.18319    
   435    1174.3       0.18319    
   436    1175.9       0.18319    
   437    1177.5       0.18319    
   438    1179.1       0.18319    
   439    1180.7       0.18319    
   440    1182.3       0.18319    
   441    1183.9       0.18319    
   442    1185.5       0.18319    
   443    1187.1       0.18319    
   444    1188.7       0.18319    
   445    1190.3       0.18319    
   446    1191.9       0.18319    
   447    1193.5       0.18319    
   448    1195.1       0.18319    
   449    1196.7       0.18319    
   450    1198.3       0.18319    
   451    1199.9       0.18319    
   452    1201.5       0.18319    
   453    1203.1       0.18319    
   454    1204.7       0.18319    
   455    1206.3       0.18319    
   456    1207.9       0.18319    
   457    1209.5       0.18319    
   458    1211.1       0.18319    
   459    1212.7       0.18319    
   460    1214.3       0.18319    
   461    1215.9       0.18319    
   462    1217.5       0.18319    
   463    1219.1       0.18319    
   464    1220.7       0.18319    
   465    1222.3       0.18319    
   466    1223.9       0.18319    
   467    1225.5       0.18319    
   468    1227.1       0.18319    
   469    1228.7       0.18319    
   470    1230.3       0.18319    
   471    1231.9       0.18319    
   472    1233.5       0.18319    
   473    1235.1       0.18319    
   474    1236.7       0.18319    
   475    1238.3       0.18319    
   476    1239.9       0.18319    
   477    1241.5       0.18319    
   478    1243.1       0.18319    
   479    1244.7       0.18319    
   480    1246.3       0.18319    
   481    1247.9       0.18319    
   482    1249.5       0.18319    
   483    1251.1       0.18319    
   484    1252.7       0.18319    
   485    1254.3       0.18319    
   486    1255.9       0.18319    
   487    1257.5       0.18319    
   488    1259.1       0.18319    
   489    1260.7       0.18319    
   490    1262.3       0.18319    
   491    1263.9       0.18319    
   492    1265.5       0.18319    
   493    1267.1       0.18319    
   494    1268.7       0.18319    
   495    1270.3       0.18319    
   496    1271.9       0.18319    
   497    1273.5       0.18319    
   498    1275.1       0.18319    
   499    1276.7       0.18319    
   500    1278.3       0.18319    
   501    1279.9       0.18319    
   502    1281.5       0.18319    
   503    1283.1       0.18319    
   504    1284.7       0.18319    
   505    1286.3       0.18319    
   506    1287.9       0.18319    
   507    1289.5       0.18319    
   508    1291.1       0.18319    
   509    1292.7       0.18319    
   510    1294.3       0.18319    
   511    1295.9       0.18319    
   512    1297.5       0.18319    
   513    1299.1       0.18319    
   514    1300.7       0.18319    
   515    1302.3       0.18319    
   516    1303.9       0.18319    
   517    1305.5       0.18319    
   518    1307.1       0.18319    
   519    1308.7       0.18319    
   520    1310.3       0.18319    
   521    1311.9       0.18319    
   522    1313.5       0.18319    
   523    1315.1       0.18319    
   524    1316.7       0.18319    
   525    1318.3       0.18319    
   526    1319.9       0.18319    
   527    1321.5       0.18319    
   528    1323.1       0.18319    
   529    1324.7       0.18319    
   530    1326.3       0.18319    
   531    1327.9       0.18319    
   532    1329.5       0.18319    
   533    1331.1       0.18319    
   534    1332.7       0.18319    
   535    1334.3       0.18319    
   536    1335.9       0.18319    
   537    1337.5       0.18319    
   538    1339.1       0.18319    
   539    1340.7       0.18319    
   540    1342.3       0.18319    
   541    1343.9       0.18319    
   542    1345.5       0.18319    
   543    1347.1       0.18319    
   544    1348.7       0.18319    
   545    1350.3       0.18319    
   546    1351.9       0.18319    
   547    1353.5       0.18319    
   548    1355.1       0.18319    
   549    1356.7       0.18319    
   550    1358.3       0.18319    
   551    1359.9       0.18319    
   552    1361.5       0.18319    
   553    1363.1       0.18319    
   554    1364.7       0.18319    
   555    1366.3       0.18319    
   556    1367.9       0.18319    
   557    1369.5       0.18319    
   558    1371.1       0.18319    
   559    1372.7       0.18319    
   560    1374.3       0.18319    
   561    1375.9       0.18319    
   562    1377.5       0.18319    
   563    1379.1       0.18319    
   564    1380.6       0.18319    
   565    1382.2       0.18319    
   566    1383.8       0.18319    
   567    1385.4       0.18319    
   568    1387.0       0.18319    
   569    1388.6       0.18319    
   570    1390.2       0.18319    
   571    1391.8       0.18319    
   572    1393.4       0.18319    
   573    1395.0       0.18319    
   574    1396.6       0.18319    
   575    1398.2       0.18319    
   576    1399.8       0.18319    
   577    1401.4       0.18319    
   578    1403.0       0.18319    
   579    1404.6       0.18319    
   580    1406.2       0.18319    
   581    1407.8       0.18319    
   582    1409.4       0.18319    
   583    1411.0       0.18319    
   584    1412.6       0.18319    
   585    1414.2       0.18319    
   586    1415.8       0.18319    
   587    1417.4       0.18319    
   588    1419.0       0.18319    
   589    1420.6       0.18319    
   590    1422.2       0.18319    
   591    1423.8       0.18319    
   592    1425.4       0.18319    
   593    1427.0       0.18319    
   594    1428.6       0.18319    
   595    1430.2       0.18319    
   596    1431.8       0.18319    
   597    1433.4       0.18319    
   598    1435.0       0.18319    
   599    1436.6       0.18319    
   600    1438.2       0.18319    
   601    1439.8       0.18319    
   602    1441.4       0.18319    
   603    1443.0       0.18319    
   604    1444.6       0.18319    
   605    1446.2       0.18319    
   606    1447.8       0.18319    
   607    1449.4       0.18319    
   608    1451.0       0.18319    
   609    1452.6       0.18319    
   610    1454.2       0.18319    
   611    1455.8       0.18319    
   612    1457.4       0.18319    
   613    1459.0       0.18319    
   614    1460.6       0.18319    
   615    1462.2       0.18319    
   616    1463.8       0.18319    
   617    1465.4       0.18319    
   618    1467.0       0.18319    
   619    1468.6       0.18319    
   620    1470.2       0.18319    
   621    1471.8       0.18319    
   622    1473.4       0.18319    
   623    1475.0       0.18319    
   624    1476.6       0.18319    
   625    1478.2       0.18319    
   626    1479.8       0.18319    
   627    1481.4       0.18319    
   628    1483.0       0.18319    
   629    1484.6       0.18319    
   630    1486.2       0.18319    
   631    1487.8       0.18319    
   632    1489.4       0.18319    
   633    1491.0       0.18319    
   634    1492.6       0.18319    
   635    1494.2       0.18319    
   636    1495.8       0.18319    
   637    1497.4       0.18319    
   638    1499.0       0.18319    
   639    1500.6       0.18319    
   640    1502.2       0.18319    
   641    1503.8       0.18319    
   642    1505.4       0.18319    
   643    1507.0       0.18319    
   644    1508.6       0.18319    
   645    1510.2       0.18319    
   646    1511.8       0.18319    
   647    1513.4       0.18319    
   648    1515.0       0.18319    
   649    1516.6       0.18319    
   650    1518.2       0.18319    
   651    1519.8       0.18319    
   652    1521.4       0.18319    
   653    1523.0       0.18319    
   654    1524.6       0.18319    
   655    1526.2       0.18319    
   656    1527.8       0.18319    
   657    1529.4       0.18319    
   658    1531.0       0.18319    
   659    1532.6       0.18319    
   660    1534.2       0.18319    
   661    1535.8       0.18319    
   662    1537.4       0.18319    
   663    1539.0       0.18319    
   664    1540.6       0.18319    
   665    1542.2       0.18319    
   666    1543.8       0.18319    
   667    1545.4       0.18319    
   668    1547.0       0.18319    
   669    1548.6       0.18319    
   670    1550.2       0.18319    
   671    1551.8       0.18319    
   672    1553.4       0.18319    
   673    1555.0       0.18319    
   674    1556.6       0.18319    
   675    1558.2       0.18319    
   676    1559.8       0.18319    
   677    1561.4       0.18319    
   678    1563.0       0.18319    
   679    1564.6       0.18319    
   680    1566.2       0.18319    
   681    1567.8       0.18319    
   682    1569.4       0.18319    
   683    1571.0       0.18319    
   684    1572.6       0.18319    
   685    1574.2       0.18319    
   686    1575.8       0.18319    
   687    1577.4       0.18319    
   688    1579.0       0.18319    
   689    1580.6       0.18319    
   690    1582.2       0.18319    
   691    1583.8       0.18319    
   692    1585.4       0.18319    
   693    1587.0       0.18319    
   694    1588.6       0.18319    
   695    1590.2       0.18319    
   696    1591.8       0.18319    
   697    1593.4       0.18319    
   698    1595.0       0.18319    
   699    1596.6       0.18319    
   700    1598.2       0.18319    
   701    1599.8       0.18319    
   702    1600.0       0.18319    
