  STEP   TOTAL TIME             LOCATION OF OBSERVATION POINTS (K,I,J)
                      1   1  51
     1    0.0000        0.0000    
     2    1.5994       3.50998E-11
     3    3.1988       5.59832E-10
     4    4.7982       4.53566E-09
     5    6.3976       2.49223E-08
     6    7.9970       1.04626E-07
     7    9.5964       3.58428E-07
     8    11.196       1.04508E-06
     9    12.795       2.67079E-06
    10    14.395       6.11389E-06
    11    15.994       1.27488E-05
    12    17.593       2.45408E-05
    13    19.193       4.40859E-05
    14    20.792       7.45778E-05
    15    22.392       1.19701E-04
    16    23.991       1.83464E-04
    17    25.590       2.69987E-04
    18    27.190       3.83283E-04
    19    28.789       5.27049E-04
    20    30.389       7.04483E-04
    21    31.988       9.18154E-04
    22    33.587       1.16991E-03
    23    35.187       1.46085E-03
    24    36.786       1.79132E-03
    25    38.386       2.16094E-03
    26    39.985       2.56870E-03
    27    41.584       3.01301E-03
    28    43.184       3.49181E-03
    29    44.783       4.00266E-03
    30    46.382       4.54281E-03
    31    47.982       5.10933E-03
    32    49.581       5.69915E-03
    33    51.181       6.30913E-03
    34    52.780       6.93617E-03
    35    54.379       7.57717E-03
    36    55.979       8.22918E-03
    37    57.578       8.88933E-03
    38    59.178       9.55491E-03
    39    60.777       1.02234E-02
    40    62.376       1.08924E-02
    41    63.976       1.15598E-02
    42    65.575       1.22236E-02
    43    67.175       1.28820E-02
    44    68.774       1.35334E-02
    45    70.373       1.41763E-02
    46    71.973       1.48095E-02
    47    73.572       1.54318E-02
    48    75.172       1.60423E-02
    49    76.771       1.66403E-02
    50    78.370       1.72250E-02
    51    79.970       1.77959E-02
    52    81.569       1.83525E-02
    53    83.169       1.88945E-02
    54    84.768       1.94217E-02
    55    86.367       1.99339E-02
    56    87.967       2.04309E-02
    57    89.566       2.09129E-02
    58    91.166       2.13799E-02
    59    92.765       2.18318E-02
    60    94.364       2.22690E-02
    61    95.964       2.26915E-02
    62    97.563       2.30997E-02
    63    99.163       2.34937E-02
    64    100.76       2.38738E-02
    65    102.36       2.42404E-02
    66    103.96       2.45937E-02
    67    105.56       2.49341E-02
    68    107.16       2.52619E-02
    69    108.76       2.55775E-02
    70    110.36       2.58813E-02
    71    111.96       2.61735E-02
    72    113.56       2.64547E-02
    73    115.16       2.67250E-02
    74    116.76       2.69850E-02
    75    118.36       2.72349E-02
    76    119.95       2.74751E-02
    77    121.55       2.77059E-02
    78    123.15       2.79278E-02
    79    124.75       2.81410E-02
    80    126.35       2.83459E-02
    81    127.95       2.85428E-02
    82    129.55       2.87320E-02
    83    131.15       2.89138E-02
    84    132.75       2.90886E-02
    85    134.35       2.92565E-02
    86    135.95       2.94180E-02
    87    137.55       2.95732E-02
    88    139.15       2.97224E-02
    89    140.75       2.98660E-02
    90    142.35       3.00040E-02
    91    143.95       3.01368E-02
    92    145.55       3.02647E-02
    93    147.14       3.03877E-02
    94    148.74       3.05062E-02
    95    150.34       3.06202E-02
    96    151.94       3.07302E-02
    97    153.54       3.08361E-02
    98    155.14       3.09382E-02
    99    156.74       3.10367E-02
   100    158.34       3.11318E-02
   101    159.94       3.12235E-02
   102    160.00       3.12268E-02
     1    161.60       3.13153E-02
     2    163.20       3.14008E-02
     3    164.80       3.14834E-02
     4    166.40       3.15632E-02
     5    168.00       3.16404E-02
     6    169.60       3.17149E-02
     7    171.20       3.17866E-02
     8    172.80       3.18552E-02
     9    174.39       3.19197E-02
    10    175.99       3.19791E-02
    11    177.59       3.20313E-02
    12    179.19       3.20739E-02
    13    180.79       3.21038E-02
    14    182.39       3.21174E-02
    15    183.99       3.21107E-02
    16    185.59       3.20798E-02
    17    187.19       3.20206E-02
    18    188.79       3.19295E-02
    19    190.39       3.18035E-02
    20    191.99       3.16400E-02
    21    193.59       3.14372E-02
    22    195.19       3.11941E-02
    23    196.79       3.09104E-02
    24    198.39       3.05864E-02
    25    199.98       3.02234E-02
    26    201.58       2.98229E-02
    27    203.18       2.93869E-02
    28    204.78       2.89181E-02
    29    206.38       2.84192E-02
    30    207.98       2.78931E-02
    31    209.58       2.73430E-02
    32    211.18       2.67721E-02
    33    212.78       2.61834E-02
    34    214.38       2.55801E-02
    35    215.98       2.49652E-02
    36    217.58       2.43416E-02
    37    219.18       2.37120E-02
    38    220.78       2.30790E-02
    39    222.38       2.24449E-02
    40    223.98       2.18119E-02
    41    225.58       2.11822E-02
    42    227.17       2.05574E-02
    43    228.77       1.99392E-02
    44    230.37       1.93291E-02
    45    231.97       1.87283E-02
    46    233.57       1.81380E-02
    47    235.17       1.75591E-02
    48    236.77       1.69925E-02
    49    238.37       1.64389E-02
    50    239.97       1.58987E-02
    51    241.57       1.53726E-02
    52    243.17       1.48608E-02
    53    244.77       1.43635E-02
    54    246.37       1.38811E-02
    55    247.97       1.34134E-02
    56    249.57       1.29606E-02
    57    251.17       1.25227E-02
    58    252.76       1.20995E-02
    59    254.36       1.16909E-02
    60    255.96       1.12968E-02
    61    257.56       1.09168E-02
    62    259.16       1.05508E-02
    63    260.76       1.01986E-02
    64    262.36       9.85969E-03
    65    263.96       9.53390E-03
    66    265.56       9.22087E-03
    67    267.16       8.92027E-03
    68    268.76       8.63174E-03
    69    270.36       8.35494E-03
    70    271.96       8.08951E-03
    71    273.56       7.83508E-03
    72    275.16       7.59130E-03
    73    276.76       7.35781E-03
    74    278.36       7.13426E-03
    75    279.95       6.92028E-03
    76    281.55       6.71555E-03
    77    283.15       6.51970E-03
    78    284.75       6.33242E-03
    79    286.35       6.15337E-03
    80    287.95       5.98222E-03
    81    289.55       5.81867E-03
    82    291.15       5.66241E-03
    83    292.75       5.51315E-03
    84    294.35       5.37059E-03
    85    295.95       5.23446E-03
    86    297.55       5.10449E-03
    87    299.15       4.98041E-03
    88    300.75       4.86198E-03
    89    302.35       4.74894E-03
    90    303.95       4.64107E-03
    91    305.55       4.53813E-03
    92    307.14       4.43991E-03
    93    308.74       4.34620E-03
    94    310.34       4.25679E-03
    95    311.94       4.17150E-03
    96    313.54       4.09013E-03
    97    315.14       4.01250E-03
    98    316.74       3.93844E-03
    99    318.34       3.86780E-03
   100    319.94       3.80040E-03
   101    321.54       3.73610E-03
   102    323.14       3.67476E-03
   103    324.74       3.61623E-03
   104    326.34       3.56038E-03
   105    327.94       3.50710E-03
   106    329.54       3.45624E-03
   107    331.14       3.40771E-03
   108    332.73       3.36138E-03
   109    334.33       3.31715E-03
   110    335.93       3.27493E-03
   111    337.53       3.23461E-03
   112    339.13       3.19611E-03
   113    340.73       3.15933E-03
   114    342.33       3.12419E-03
   115    343.93       3.09061E-03
   116    345.53       3.05853E-03
   117    347.13       3.02785E-03
   118    348.73       2.99852E-03
   119    350.33       2.97047E-03
   120    351.93       2.94363E-03
   121    353.53       2.91796E-03
   122    355.13       2.89338E-03
   123    356.73       2.86984E-03
   124    358.33       2.84730E-03
   125    359.92       2.82571E-03
   126    361.52       2.80501E-03
   127    363.12       2.78517E-03
   128    364.72       2.76614E-03
   129    366.32       2.74788E-03
   130    367.92       2.73036E-03
   131    369.52       2.71353E-03
   132    371.12       2.69736E-03
   133    372.72       2.68182E-03
   134    374.32       2.66688E-03
   135    375.92       2.65251E-03
   136    377.52       2.63868E-03
   137    379.12       2.62536E-03
   138    380.72       2.61253E-03
   139    382.32       2.60016E-03
   140    383.92       2.58824E-03
   141    385.51       2.57673E-03
   142    387.11       2.56561E-03
   143    388.71       2.55488E-03
   144    390.31       2.54451E-03
   145    391.91       2.53447E-03
   146    393.51       2.52476E-03
   147    395.11       2.51536E-03
   148    396.71       2.50625E-03
   149    398.31       2.49742E-03
   150    399.91       2.48885E-03
   151    401.51       2.48053E-03
   152    403.11       2.47245E-03
   153    404.71       2.46460E-03
   154    406.31       2.45696E-03
   155    407.91       2.44953E-03
   156    409.51       2.44229E-03
   157    411.11       2.43524E-03
   158    412.70       2.42837E-03
   159    414.30       2.42166E-03
   160    415.90       2.41511E-03
   161    417.50       2.40871E-03
   162    419.10       2.40245E-03
   163    420.70       2.39633E-03
   164    422.30       2.39034E-03
   165    423.90       2.38448E-03
   166    425.50       2.37873E-03
   167    427.10       2.37309E-03
   168    428.70       2.36756E-03
   169    430.30       2.36213E-03
   170    431.90       2.35680E-03
   171    433.50       2.35156E-03
   172    435.10       2.34641E-03
   173    436.70       2.34134E-03
   174    438.29       2.33635E-03
   175    439.89       2.33143E-03
   176    441.49       2.32659E-03
   177    443.09       2.32181E-03
   178    444.69       2.31710E-03
   179    446.29       2.31245E-03
   180    447.89       2.30786E-03
   181    449.49       2.30333E-03
   182    451.09       2.29885E-03
   183    452.69       2.29442E-03
   184    454.29       2.29004E-03
   185    455.89       2.28571E-03
   186    457.49       2.28142E-03
   187    459.09       2.27718E-03
   188    460.69       2.27297E-03
   189    462.29       2.26881E-03
   190    463.89       2.26468E-03
   191    465.48       2.26058E-03
   192    467.08       2.25652E-03
   193    468.68       2.25250E-03
   194    470.28       2.24850E-03
   195    471.88       2.24454E-03
   196    473.48       2.24060E-03
   197    475.08       2.23669E-03
   198    476.68       2.23281E-03
   199    478.28       2.22895E-03
   200    479.88       2.22511E-03
   201    480.00       2.22484E-03
     1    481.60       2.22103E-03
     2    483.20       2.21724E-03
     3    484.80       2.21347E-03
     4    486.40       2.20973E-03
     5    488.00       2.20600E-03
     6    489.60       2.20229E-03
     7    491.20       2.19861E-03
     8    492.80       2.19493E-03
     9    494.39       2.19128E-03
    10    495.99       2.18764E-03
    11    497.59       2.18402E-03
    12    499.19       2.18041E-03
    13    500.79       2.17681E-03
    14    502.39       2.17323E-03
    15    503.99       2.16967E-03
    16    505.59       2.16611E-03
    17    507.19       2.16257E-03
    18    508.79       2.15905E-03
    19    510.39       2.15553E-03
    20    511.99       2.15203E-03
    21    513.59       2.14853E-03
    22    515.19       2.14505E-03
    23    516.79       2.14158E-03
    24    518.39       2.13812E-03
    25    519.99       2.13467E-03
    26    521.58       2.13123E-03
    27    523.18       2.12779E-03
    28    524.78       2.12437E-03
    29    526.38       2.12096E-03
    30    527.98       2.11756E-03
    31    529.58       2.11416E-03
    32    531.18       2.11078E-03
    33    532.78       2.10740E-03
    34    534.38       2.10403E-03
    35    535.98       2.10067E-03
    36    537.58       2.09731E-03
    37    539.18       2.09397E-03
    38    540.78       2.09063E-03
    39    542.38       2.08730E-03
    40    543.98       2.08398E-03
    41    545.58       2.08066E-03
    42    547.18       2.07735E-03
    43    548.77       2.07405E-03
    44    550.37       2.07076E-03
    45    551.97       2.06747E-03
    46    553.57       2.06419E-03
    47    555.17       2.06091E-03
    48    556.77       2.05765E-03
    49    558.37       2.05438E-03
    50    559.97       2.05113E-03
    51    561.57       2.04788E-03
    52    563.17       2.04464E-03
    53    564.77       2.04140E-03
    54    566.37       2.03817E-03
    55    567.97       2.03494E-03
    56    569.57       2.03172E-03
    57    571.17       2.02851E-03
    58    572.77       2.02530E-03
    59    574.37       2.02210E-03
    60    575.96       2.01891E-03
    61    577.56       2.01572E-03
    62    579.16       2.01253E-03
    63    580.76       2.00935E-03
    64    582.36       2.00618E-03
    65    583.96       2.00301E-03
    66    585.56       1.99985E-03
    67    587.16       1.99669E-03
    68    588.76       1.99354E-03
    69    590.36       1.99039E-03
    70    591.96       1.98725E-03
    71    593.56       1.98411E-03
    72    595.16       1.98098E-03
    73    596.76       1.97786E-03
    74    598.36       1.97474E-03
    75    599.96       1.97162E-03
    76    601.56       1.96851E-03
    77    603.16       1.96540E-03
    78    604.75       1.96230E-03
    79    606.35       1.95921E-03
    80    607.95       1.95612E-03
    81    609.55       1.95303E-03
    82    611.15       1.94995E-03
    83    612.75       1.94688E-03
    84    614.35       1.94381E-03
    85    615.95       1.94074E-03
    86    617.55       1.93768E-03
    87    619.15       1.93463E-03
    88    620.75       1.93158E-03
    89    622.35       1.92853E-03
    90    623.95       1.92549E-03
    91    625.55       1.92245E-03
    92    627.15       1.91942E-03
    93    628.75       1.91639E-03
    94    630.35       1.91337E-03
    95    631.94       1.91035E-03
    96    633.54       1.90734E-03
    97    635.14       1.90433E-03
    98    636.74       1.90133E-03
    99    638.34       1.89833E-03
   100    639.94       1.89534E-03
   101    641.54       1.89235E-03
   102    643.14       1.88937E-03
   103    644.74       1.88639E-03
   104    646.34       1.88341E-03
   105    647.94       1.88044E-03
   106    649.54       1.87748E-03
   107    651.14       1.87452E-03
   108    652.74       1.87156E-03
   109    654.34       1.86861E-03
   110    655.94       1.86566E-03
   111    657.54       1.86272E-03
   112    659.14       1.85978E-03
   113    660.73       1.85685E-03
   114    662.33       1.85392E-03
   115    663.93       1.85099E-03
   116    665.53       1.84808E-03
   117    667.13       1.84516E-03
   118    668.73       1.84225E-03
   119    670.33       1.83934E-03
   120    671.93       1.83644E-03
   121    673.53       1.83355E-03
   122    675.13       1.83065E-03
   123    676.73       1.82776E-03
   124    678.33       1.82488E-03
   125    679.93       1.82200E-03
   126    681.53       1.81913E-03
   127    683.13       1.81626E-03
   128    684.73       1.81339E-03
   129    686.33       1.81053E-03
   130    687.92       1.80767E-03
   131    689.52       1.80482E-03
   132    691.12       1.80197E-03
   133    692.72       1.79913E-03
   134    694.32       1.79629E-03
   135    695.92       1.79345E-03
   136    697.52       1.79062E-03
   137    699.12       1.78780E-03
   138    700.72       1.78498E-03
   139    702.32       1.78216E-03
   140    703.92       1.77935E-03
   141    705.52       1.77654E-03
   142    707.12       1.77373E-03
   143    708.72       1.77093E-03
   144    710.32       1.76814E-03
   145    711.92       1.76535E-03
   146    713.52       1.76256E-03
   147    715.12       1.75978E-03
   148    716.71       1.75700E-03
   149    718.31       1.75422E-03
   150    719.91       1.75145E-03
   151    721.51       1.74869E-03
   152    723.11       1.74593E-03
   153    724.71       1.74317E-03
   154    726.31       1.74042E-03
   155    727.91       1.73767E-03
   156    729.51       1.73492E-03
   157    731.11       1.73218E-03
   158    732.71       1.72945E-03
   159    734.31       1.72672E-03
   160    735.91       1.72399E-03
   161    737.51       1.72127E-03
   162    739.11       1.71855E-03
   163    740.71       1.71583E-03
   164    742.31       1.71312E-03
   165    743.90       1.71041E-03
   166    745.50       1.70771E-03
   167    747.10       1.70501E-03
   168    748.70       1.70232E-03
   169    750.30       1.69963E-03
   170    751.90       1.69694E-03
   171    753.50       1.69426E-03
   172    755.10       1.69159E-03
   173    756.70       1.68891E-03
   174    758.30       1.68624E-03
   175    759.90       1.68358E-03
   176    761.50       1.68092E-03
   177    763.10       1.67826E-03
   178    764.70       1.67561E-03
   179    766.30       1.67296E-03
   180    767.90       1.67032E-03
   181    769.50       1.66768E-03
   182    771.09       1.66504E-03
   183    772.69       1.66241E-03
   184    774.29       1.65978E-03
   185    775.89       1.65716E-03
   186    777.49       1.65454E-03
   187    779.09       1.65192E-03
   188    780.69       1.64931E-03
   189    782.29       1.64670E-03
   190    783.89       1.64410E-03
   191    785.49       1.64150E-03
   192    787.09       1.63890E-03
   193    788.69       1.63631E-03
   194    790.29       1.63372E-03
   195    791.89       1.63114E-03
   196    793.49       1.62856E-03
   197    795.09       1.62598E-03
   198    796.69       1.62341E-03
   199    798.29       1.62084E-03
   200    799.88       1.61828E-03
   201    801.48       1.61572E-03
   202    803.08       1.61316E-03
   203    804.68       1.61061E-03
   204    806.28       1.60806E-03
   205    807.88       1.60552E-03
   206    809.48       1.60298E-03
   207    811.08       1.60044E-03
   208    812.68       1.59791E-03
   209    814.28       1.59538E-03
   210    815.88       1.59286E-03
   211    817.48       1.59034E-03
   212    819.08       1.58782E-03
   213    820.68       1.58531E-03
   214    822.28       1.58280E-03
   215    823.88       1.58030E-03
   216    825.48       1.57779E-03
   217    827.07       1.57530E-03
   218    828.67       1.57280E-03
   219    830.27       1.57031E-03
   220    831.87       1.56783E-03
   221    833.47       1.56535E-03
   222    835.07       1.56287E-03
   223    836.67       1.56039E-03
   224    838.27       1.55792E-03
   225    839.87       1.55546E-03
   226    841.47       1.55300E-03
   227    843.07       1.55054E-03
   228    844.67       1.54808E-03
   229    846.27       1.54563E-03
   230    847.87       1.54318E-03
   231    849.47       1.54074E-03
   232    851.07       1.53830E-03
   233    852.67       1.53586E-03
   234    854.27       1.53343E-03
   235    855.86       1.53100E-03
   236    857.46       1.52858E-03
   237    859.06       1.52616E-03
   238    860.66       1.52374E-03
   239    862.26       1.52133E-03
   240    863.86       1.51892E-03
   241    865.46       1.51651E-03
   242    867.06       1.51411E-03
   243    868.66       1.51171E-03
   244    870.26       1.50932E-03
   245    871.86       1.50692E-03
   246    873.46       1.50454E-03
   247    875.06       1.50215E-03
   248    876.66       1.49977E-03
   249    878.26       1.49740E-03
   250    879.86       1.49502E-03
   251    881.46       1.49266E-03
   252    883.05       1.49029E-03
   253    884.65       1.48793E-03
   254    886.25       1.48557E-03
   255    887.85       1.48322E-03
   256    889.45       1.48087E-03
   257    891.05       1.47852E-03
   258    892.65       1.47618E-03
   259    894.25       1.47384E-03
   260    895.85       1.47150E-03
   261    897.45       1.46917E-03
   262    899.05       1.46684E-03
   263    900.65       1.46451E-03
   264    902.25       1.46219E-03
   265    903.85       1.45987E-03
   266    905.45       1.45756E-03
   267    907.05       1.45525E-03
   268    908.65       1.45294E-03
   269    910.25       1.45064E-03
   270    911.84       1.44834E-03
   271    913.44       1.44604E-03
   272    915.04       1.44375E-03
   273    916.64       1.44146E-03
   274    918.24       1.43917E-03
   275    919.84       1.43689E-03
   276    921.44       1.43461E-03
   277    923.04       1.43233E-03
   278    924.64       1.43006E-03
   279    926.24       1.42780E-03
   280    927.84       1.42553E-03
   281    929.44       1.42327E-03
   282    931.04       1.42101E-03
   283    932.64       1.41876E-03
   284    934.24       1.41651E-03
   285    935.84       1.41426E-03
   286    937.44       1.41202E-03
   287    939.03       1.40978E-03
   288    940.63       1.40754E-03
   289    942.23       1.40531E-03
   290    943.83       1.40308E-03
   291    945.43       1.40085E-03
   292    947.03       1.39863E-03
   293    948.63       1.39641E-03
   294    950.23       1.39419E-03
   295    951.83       1.39198E-03
   296    953.43       1.38977E-03
   297    955.03       1.38756E-03
   298    956.63       1.38536E-03
   299    958.23       1.38316E-03
   300    959.83       1.38097E-03
   301    961.43       1.37878E-03
   302    963.03       1.37659E-03
   303    964.63       1.37440E-03
   304    966.22       1.37222E-03
   305    967.82       1.37004E-03
   306    969.42       1.36787E-03
   307    971.02       1.36570E-03
   308    972.62       1.36353E-03
   309    974.22       1.36136E-03
   310    975.82       1.35920E-03
   311    977.42       1.35704E-03
   312    979.02       1.35489E-03
   313    980.62       1.35274E-03
   314    982.22       1.35059E-03
   315    983.82       1.34844E-03
   316    985.42       1.34630E-03
   317    987.02       1.34416E-03
   318    988.62       1.34203E-03
   319    990.22       1.33990E-03
   320    991.82       1.33777E-03
   321    993.42       1.33565E-03
   322    995.01       1.33352E-03
   323    996.61       1.33141E-03
   324    998.21       1.32929E-03
   325    999.81       1.32718E-03
   326    1000.0       1.32694E-03
   327    1001.6       1.32483E-03
   328    1003.2       1.32273E-03
   329    1004.8       1.32063E-03
   330    1006.4       1.31853E-03
   331    1008.0       1.31644E-03
   332    1009.6       1.31434E-03
   333    1011.2       1.31226E-03
   334    1012.8       1.31017E-03
   335    1014.4       1.30809E-03
   336    1016.0       1.30601E-03
   337    1017.6       1.30393E-03
   338    1019.2       1.30186E-03
   339    1020.8       1.29979E-03
   340    1022.4       1.29773E-03
   341    1024.0       1.29566E-03
   342    1025.6       1.29360E-03
   343    1027.2       1.29155E-03
   344    1028.8       1.28949E-03
   345    1030.4       1.28744E-03
   346    1032.0       1.28539E-03
   347    1033.6       1.28335E-03
   348    1035.2       1.28131E-03
   349    1036.8       1.27927E-03
   350    1038.4       1.27723E-03
   351    1040.0       1.27520E-03
   352    1041.6       1.27317E-03
   353    1043.2       1.27115E-03
   354    1044.8       1.26913E-03
   355    1046.4       1.26711E-03
   356    1048.0       1.26509E-03
   357    1049.6       1.26308E-03
   358    1051.2       1.26107E-03
   359    1052.8       1.25906E-03
   360    1054.4       1.25706E-03
   361    1056.0       1.25506E-03
   362    1057.6       1.25307E-03
   363    1059.2       1.25107E-03
   364    1060.8       1.24908E-03
   365    1062.4       1.24710E-03
   366    1064.0       1.24511E-03
   367    1065.6       1.24313E-03
   368    1067.2       1.24115E-03
   369    1068.8       1.23918E-03
   370    1070.4       1.23721E-03
   371    1072.0       1.23524E-03
   372    1073.6       1.23327E-03
   373    1075.2       1.23131E-03
   374    1076.8       1.22935E-03
   375    1078.4       1.22740E-03
   376    1080.0       1.22545E-03
   377    1081.6       1.22350E-03
   378    1083.2       1.22155E-03
   379    1084.8       1.21961E-03
   380    1086.4       1.21766E-03
   381    1088.0       1.21573E-03
   382    1089.6       1.21379E-03
   383    1091.2       1.21186E-03
   384    1092.8       1.20993E-03
   385    1094.4       1.20801E-03
   386    1096.0       1.20608E-03
   387    1097.6       1.20417E-03
   388    1099.2       1.20225E-03
   389    1100.8       1.20034E-03
   390    1102.4       1.19842E-03
   391    1104.0       1.19652E-03
   392    1105.6       1.19461E-03
   393    1107.2       1.19271E-03
   394    1108.8       1.19081E-03
   395    1110.4       1.18892E-03
   396    1112.0       1.18702E-03
   397    1113.6       1.18513E-03
   398    1115.2       1.18325E-03
   399    1116.8       1.18136E-03
   400    1118.4       1.17948E-03
   401    1120.0       1.17760E-03
   402    1121.6       1.17573E-03
   403    1123.2       1.17386E-03
   404    1124.8       1.17199E-03
   405    1126.4       1.17012E-03
   406    1128.0       1.16826E-03
   407    1129.5       1.16640E-03
   408    1131.1       1.16454E-03
   409    1132.7       1.16269E-03
   410    1134.3       1.16083E-03
   411    1135.9       1.15898E-03
   412    1137.5       1.15714E-03
   413    1139.1       1.15529E-03
   414    1140.7       1.15345E-03
   415    1142.3       1.15162E-03
   416    1143.9       1.14978E-03
   417    1145.5       1.14795E-03
   418    1147.1       1.14612E-03
   419    1148.7       1.14430E-03
   420    1150.3       1.14247E-03
   421    1151.9       1.14065E-03
   422    1153.5       1.13883E-03
   423    1155.1       1.13702E-03
   424    1156.7       1.13521E-03
   425    1158.3       1.13340E-03
   426    1159.9       1.13159E-03
   427    1161.5       1.12979E-03
   428    1163.1       1.12799E-03
   429    1164.7       1.12619E-03
   430    1166.3       1.12440E-03
   431    1167.9       1.12260E-03
   432    1169.5       1.12081E-03
   433    1171.1       1.11903E-03
   434    1172.7       1.11724E-03
   435    1174.3       1.11546E-03
   436    1175.9       1.11368E-03
   437    1177.5       1.11191E-03
   438    1179.1       1.11014E-03
   439    1180.7       1.10837E-03
   440    1182.3       1.10660E-03
   441    1183.9       1.10483E-03
   442    1185.5       1.10307E-03
   443    1187.1       1.10131E-03
   444    1188.7       1.09956E-03
   445    1190.3       1.09781E-03
   446    1191.9       1.09605E-03
   447    1193.5       1.09431E-03
   448    1195.1       1.09256E-03
   449    1196.7       1.09082E-03
   450    1198.3       1.08908E-03
   451    1199.9       1.08734E-03
   452    1201.5       1.08561E-03
   453    1203.1       1.08388E-03
   454    1204.7       1.08215E-03
   455    1206.3       1.08042E-03
   456    1207.9       1.07870E-03
   457    1209.5       1.07698E-03
   458    1211.1       1.07526E-03
   459    1212.7       1.07354E-03
   460    1214.3       1.07183E-03
   461    1215.9       1.07012E-03
   462    1217.5       1.06841E-03
   463    1219.1       1.06671E-03
   464    1220.7       1.06501E-03
   465    1222.3       1.06331E-03
   466    1223.9       1.06161E-03
   467    1225.5       1.05992E-03
   468    1227.1       1.05823E-03
   469    1228.7       1.05654E-03
   470    1230.3       1.05485E-03
   471    1231.9       1.05317E-03
   472    1233.5       1.05149E-03
   473    1235.1       1.04981E-03
   474    1236.7       1.04813E-03
   475    1238.3       1.04646E-03
   476    1239.9       1.04479E-03
   477    1241.5       1.04312E-03
   478    1243.1       1.04146E-03
   479    1244.7       1.03979E-03
   480    1246.3       1.03813E-03
   481    1247.9       1.03648E-03
   482    1249.5       1.03482E-03
   483    1251.1       1.03317E-03
   484    1252.7       1.03152E-03
   485    1254.3       1.02987E-03
   486    1255.9       1.02823E-03
   487    1257.5       1.02659E-03
   488    1259.1       1.02495E-03
   489    1260.7       1.02331E-03
   490    1262.3       1.02168E-03
   491    1263.9       1.02005E-03
   492    1265.5       1.01842E-03
   493    1267.1       1.01679E-03
   494    1268.7       1.01517E-03
   495    1270.3       1.01355E-03
   496    1271.9       1.01193E-03
   497    1273.5       1.01031E-03
   498    1275.1       1.00870E-03
   499    1276.7       1.00708E-03
   500    1278.3       1.00548E-03
   501    1279.9       1.00387E-03
   502    1281.5       1.00227E-03
   503    1283.1       1.00067E-03
   504    1284.7       9.99066E-04
   505    1286.3       9.97470E-04
   506    1287.9       9.95877E-04
   507    1289.5       9.94286E-04
   508    1291.1       9.92697E-04
   509    1292.7       9.91111E-04
   510    1294.3       9.89527E-04
   511    1295.9       9.87946E-04
   512    1297.5       9.86368E-04
   513    1299.1       9.84792E-04
   514    1300.7       9.83218E-04
   515    1302.3       9.81647E-04
   516    1303.9       9.80078E-04
   517    1305.5       9.78511E-04
   518    1307.1       9.76947E-04
   519    1308.7       9.75386E-04
   520    1310.3       9.73827E-04
   521    1311.9       9.72270E-04
   522    1313.5       9.70716E-04
   523    1315.1       9.69164E-04
   524    1316.7       9.67615E-04
   525    1318.3       9.66068E-04
   526    1319.9       9.64524E-04
   527    1321.5       9.62982E-04
   528    1323.1       9.61442E-04
   529    1324.7       9.59905E-04
   530    1326.3       9.58371E-04
   531    1327.9       9.56838E-04
   532    1329.5       9.55308E-04
   533    1331.1       9.53781E-04
   534    1332.7       9.52256E-04
   535    1334.3       9.50733E-04
   536    1335.9       9.49213E-04
   537    1337.5       9.47695E-04
   538    1339.1       9.46179E-04
   539    1340.7       9.44666E-04
   540    1342.3       9.43155E-04
   541    1343.9       9.41646E-04
   542    1345.5       9.40140E-04
   543    1347.1       9.38636E-04
   544    1348.7       9.37135E-04
   545    1350.3       9.35636E-04
   546    1351.9       9.34139E-04
   547    1353.5       9.32645E-04
   548    1355.1       9.31153E-04
   549    1356.7       9.29663E-04
   550    1358.3       9.28176E-04
   551    1359.9       9.26692E-04
   552    1361.5       9.25209E-04
   553    1363.1       9.23729E-04
   554    1364.7       9.22251E-04
   555    1366.3       9.20776E-04
   556    1367.9       9.19302E-04
   557    1369.5       9.17831E-04
   558    1371.1       9.16363E-04
   559    1372.7       9.14896E-04
   560    1374.3       9.13432E-04
   561    1375.9       9.11971E-04
   562    1377.5       9.10511E-04
   563    1379.1       9.09054E-04
   564    1380.6       9.07599E-04
   565    1382.2       9.06146E-04
   566    1383.8       9.04695E-04
   567    1385.4       9.03247E-04
   568    1387.0       9.01801E-04
   569    1388.6       9.00358E-04
   570    1390.2       8.98917E-04
   571    1391.8       8.97478E-04
   572    1393.4       8.96041E-04
   573    1395.0       8.94606E-04
   574    1396.6       8.93174E-04
   575    1398.2       8.91744E-04
   576    1399.8       8.90317E-04
   577    1401.4       8.88892E-04
   578    1403.0       8.87468E-04
   579    1404.6       8.86047E-04
   580    1406.2       8.84628E-04
   581    1407.8       8.83212E-04
   582    1409.4       8.81798E-04
   583    1411.0       8.80386E-04
   584    1412.6       8.78976E-04
   585    1414.2       8.77568E-04
   586    1415.8       8.76163E-04
   587    1417.4       8.74759E-04
   588    1419.0       8.73358E-04
   589    1420.6       8.71959E-04
   590    1422.2       8.70562E-04
   591    1423.8       8.69168E-04
   592    1425.4       8.67776E-04
   593    1427.0       8.66386E-04
   594    1428.6       8.64998E-04
   595    1430.2       8.63613E-04
   596    1431.8       8.62229E-04
   597    1433.4       8.60848E-04
   598    1435.0       8.59469E-04
   599    1436.6       8.58093E-04
   600    1438.2       8.56718E-04
   601    1439.8       8.55345E-04
   602    1441.4       8.53974E-04
   603    1443.0       8.52606E-04
   604    1444.6       8.51240E-04
   605    1446.2       8.49876E-04
   606    1447.8       8.48514E-04
   607    1449.4       8.47154E-04
   608    1451.0       8.45797E-04
   609    1452.6       8.44441E-04
   610    1454.2       8.43088E-04
   611    1455.8       8.41736E-04
   612    1457.4       8.40387E-04
   613    1459.0       8.39041E-04
   614    1460.6       8.37696E-04
   615    1462.2       8.36353E-04
   616    1463.8       8.35012E-04
   617    1465.4       8.33674E-04
   618    1467.0       8.32338E-04
   619    1468.6       8.31003E-04
   620    1470.2       8.29671E-04
   621    1471.8       8.28341E-04
   622    1473.4       8.27014E-04
   623    1475.0       8.25688E-04
   624    1476.6       8.24364E-04
   625    1478.2       8.23042E-04
   626    1479.8       8.21722E-04
   627    1480.0       8.21570E-04
