  STEP   TOTAL TIME             LOCATION OF OBSERVATION POINTS (K,I,J)
                      1   4   7     1  11   7
     1   2.56179E+05   0.47655       4.19977E-14
     2   5.12357E+05   0.89272       7.51014E-13
     3   7.68536E+05    1.2568       7.00358E-12
     4   1.02471E+06    1.5761       4.46418E-11
     5   1.28089E+06    1.8565       2.23397E-10
     6   1.53707E+06    2.1034       9.37999E-10
     7   1.79325E+06    2.3213       3.42186E-09
     8   2.04943E+06    2.5138       1.10437E-08
     9   2.30561E+06    2.6844       3.22262E-08
    10   2.56179E+06    2.8363       8.69633E-08
    11   2.81796E+06    2.9715       2.20966E-07
    12   3.07414E+06    3.0918       5.34522E-07
    13   3.33032E+06    3.1992       1.23555E-06
    14   3.58650E+06    3.2951       2.74541E-06
    15   3.84268E+06    3.3810       5.92646E-06
    16   4.09886E+06    3.4580       1.23980E-05
    17   4.35504E+06    3.5271       2.48962E-05
    18   4.61121E+06    3.5892       4.79281E-05
    19   4.86739E+06    3.6450       8.87249E-05
    20   5.12357E+06    3.6954       1.58091E-04
    21   5.37975E+06    3.7410       2.72189E-04
    22   5.63593E+06    3.7833       4.56199E-04
    23   5.89211E+06    3.8215       7.44353E-04
    24   6.14828E+06    3.8560       1.18128E-03
    25   6.40446E+06    3.8874       1.82302E-03
    26   6.66064E+06    3.9158       2.73508E-03
    27   6.91682E+06    3.9416       3.99558E-03
    28   7.17300E+06    3.9650       5.69291E-03
    29   7.42918E+06    3.9863       7.92357E-03
    30   7.68536E+06    4.0057       1.07902E-02
    31   7.94153E+06    4.0233       1.43974E-02
    32   8.19771E+06    4.0393       1.88423E-02
    33   8.45389E+06    4.0539       2.42165E-02
    34   8.71007E+06    4.0672       3.06059E-02
    35   8.96625E+06    4.0793       3.80872E-02
    36   9.22243E+06    4.0904       4.67259E-02
    37   9.47861E+06    4.1005       5.65740E-02
    38   9.73479E+06    4.1097       6.76688E-02
    39   9.99097E+06    4.1181       8.00319E-02
    40   1.02471E+07    4.1258       9.36692E-02
    41   1.05033E+07    4.1329       0.10860    
    42   1.07595E+07    4.1393       0.12495    
    43   1.10157E+07    4.1452       0.14258    
    44   1.12719E+07    4.1506       0.16135    
    45   1.15280E+07    4.1555       0.18119    
    46   1.17842E+07    4.1601       0.20201    
    47   1.20404E+07    4.1642       0.22372    
    48   1.22966E+07    4.1680       0.24620    
    49   1.25528E+07    4.1715       0.26937    
    50   1.28089E+07    4.1747       0.29311    
    51   1.30651E+07    4.1777       0.31734    
    52   1.33213E+07    4.1804       0.34194    
    53   1.35775E+07    4.1828       0.36682    
    54   1.38337E+07    4.1851       0.39187    
    55   1.40898E+07    4.1871       0.41699    
    56   1.43460E+07    4.1890       0.44209    
    57   1.46022E+07    4.1907       0.46705    
    58   1.48584E+07    4.1923       0.49177    
    59   1.51145E+07    4.1937       0.51614    
    60   1.53707E+07    4.1950       0.54004    
    61   1.56269E+07    4.1962       0.56337    
    62   1.58831E+07    4.1973       0.58517    
    63   1.61393E+07    4.1983       0.60686    
    64   1.63954E+07    4.1991       0.62832    
    65   1.66516E+07    4.1999       0.64948    
    66   1.69078E+07    4.2006       0.67024    
    67   1.71640E+07    4.2013       0.69053    
    68   1.74202E+07    4.2019       0.71031    
    69   1.76763E+07    4.2024       0.72951    
    70   1.79325E+07    4.2028       0.74812    
    71   1.81887E+07    4.2032       0.76611    
    72   1.84449E+07    4.2036       0.78295    
    73   1.87010E+07    4.2039       0.79851    
    74   1.89572E+07    4.2042       0.81294    
    75   1.92134E+07    4.2044       0.82635    
    76   1.94696E+07    4.2046       0.83885    
    77   1.97258E+07    4.2048       0.85047    
    78   1.99819E+07    4.2049       0.86112    
    79   2.02381E+07    4.2050       0.87090    
    80   2.04943E+07    4.2051       0.87990    
    81   2.07505E+07    4.2052       0.88824    
    82   2.10066E+07    4.2053       0.89602    
    83   2.12628E+07    4.2053       0.90331    
    84   2.15190E+07    4.2053       0.91019    
    85   2.17752E+07    4.2053       0.91671    
    86   2.20314E+07    4.2053       0.92290    
    87   2.22875E+07    4.2053       0.92879    
    88   2.25437E+07    4.2053       0.93441    
    89   2.27999E+07    4.2052       0.93976    
    90   2.30561E+07    4.2052       0.94487    
    91   2.33122E+07    4.2051       0.94975    
    92   2.35684E+07    4.2051       0.95440    
    93   2.38246E+07    4.2050       0.95882    
    94   2.40808E+07    4.2049       0.96304    
    95   2.43370E+07    4.2049       0.96704    
    96   2.45931E+07    4.2048       0.97084    
    97   2.48493E+07    4.2047       0.97444    
    98   2.51055E+07    4.2046       0.97786    
    99   2.53617E+07    4.2045       0.98109    
   100   2.56178E+07    4.2044       0.98415    
   101   2.58740E+07    4.2043       0.98705    
   102   2.61302E+07    4.2043       0.98979    
   103   2.63864E+07    4.2042       0.99237    
   104   2.66426E+07    4.2041       0.99476    
   105   2.68987E+07    4.2040       0.99696    
   106   2.71549E+07    4.2039       0.99896    
   107   2.74111E+07    4.2038        1.0008    
   108   2.76673E+07    4.2037        1.0024    
   109   2.79235E+07    4.2036        1.0038    
   110   2.81796E+07    4.2036        1.0051    
   111   2.84358E+07    4.2035        1.0065    
   112   2.86920E+07    4.2034        1.0078    
   113   2.89482E+07    4.2033        1.0088    
   114   2.92043E+07    4.2032        1.0098    
   115   2.94605E+07    4.2031        1.0106    
   116   2.97167E+07    4.2031        1.0113    
   117   2.99729E+07    4.2030        1.0119    
   118   3.02291E+07    4.2029        1.0125    
   119   3.04852E+07    4.2028        1.0131    
   120   3.07414E+07    4.2028        1.0136    
   121   3.09976E+07    4.2027        1.0140    
   122   3.12538E+07    4.2026        1.0145    
   123   3.15099E+07    4.2026        1.0150    
   124   3.15360E+07    4.2082        1.0150    
     1   3.17922E+07    3.7255        1.0155    
     2   3.20484E+07    3.3093        1.0160    
     3   3.23045E+07    2.9448        1.0164    
     4   3.25607E+07    2.6248        1.0168    
     5   3.28169E+07    2.3433        1.0172    
     6   3.30731E+07    2.0951        1.0176    
     7   3.33292E+07    1.8758        1.0180    
     8   3.35854E+07    1.6815        1.0184    
     9   3.38416E+07    1.5091        1.0188    
    10   3.40978E+07    1.3559        1.0191    
    11   3.43540E+07    1.2195        1.0194    
    12   3.46101E+07    1.0979        1.0197    
    13   3.48663E+07   0.98935        1.0199    
    14   3.51225E+07   0.89227        1.0202    
    15   3.53787E+07   0.80535        1.0204    
    16   3.56349E+07   0.72744        1.0206    
    17   3.58910E+07   0.65752        1.0209    
    18   3.61472E+07   0.59420        1.0213    
    19   3.64034E+07   0.53678        1.0217    
    20   3.66596E+07   0.48472        1.0222    
    21   3.69158E+07   0.43754        1.0228    
    22   3.71719E+07   0.39478        1.0235    
    23   3.74281E+07   0.35605        1.0243    
    24   3.76843E+07   0.32096        1.0251    
    25   3.79405E+07   0.28919        1.0259    
    26   3.81967E+07   0.26042        1.0273    
    27   3.84528E+07   0.23438        1.0287    
    28   3.87090E+07   0.21087        1.0291    
    29   3.89652E+07   0.18978        1.0287    
    30   3.92214E+07   0.17085        1.0273    
    31   3.94776E+07   0.15385        1.0247    
    32   3.97337E+07   0.13859        1.0210    
    33   3.99899E+07   0.12489        1.0176    
    34   4.02461E+07   0.11258        1.0138    
    35   4.05023E+07   0.10151        1.0090    
    36   4.07585E+07   9.15702E-02    1.0022    
    37   4.10146E+07   8.26319E-02   0.99329    
    38   4.12708E+07   7.45943E-02   0.98249    
    39   4.15270E+07   6.73648E-02   0.96999    
    40   4.17832E+07   6.08604E-02   0.95562    
    41   4.20394E+07   5.50067E-02   0.93932    
    42   4.22955E+07   4.97371E-02   0.92113    
    43   4.25517E+07   4.49920E-02   0.90117    
    44   4.28079E+07   4.07178E-02   0.87957    
    45   4.30641E+07   3.68666E-02   0.85651    
    46   4.33203E+07   3.33954E-02   0.83059    
    47   4.35764E+07   3.02651E-02   0.80407    
    48   4.38326E+07   2.74404E-02   0.77712    
    49   4.40888E+07   2.48901E-02   0.74988    
    50   4.43450E+07   2.25871E-02   0.72248    
    51   4.46012E+07   2.05064E-02   0.69504    
    52   4.48573E+07   1.86260E-02   0.66765    
    53   4.51135E+07   1.69265E-02   0.64037    
    54   4.53697E+07   1.53885E-02   0.61318    
    55   4.56259E+07   1.39964E-02   0.58606    
    56   4.58821E+07   1.27364E-02   0.55911    
    57   4.61382E+07   1.15954E-02   0.53242    
    58   4.63944E+07   1.05617E-02   0.50608    
    59   4.66506E+07   9.62485E-03   0.48018    
    60   4.69068E+07   8.77533E-03   0.45481    
    61   4.71630E+07   8.00463E-03   0.43003    
    62   4.74191E+07   7.30509E-03   0.40593    
    63   4.76753E+07   6.66980E-03   0.38258    
    64   4.79315E+07   6.09255E-03   0.36002    
    65   4.81877E+07   5.56775E-03   0.33831    
    66   4.84439E+07   5.09034E-03   0.31748    
    67   4.87000E+07   4.65579E-03   0.29757    
    68   4.89562E+07   4.26003E-03   0.27858    
    69   4.92124E+07   3.89938E-03   0.26054    
    70   4.94686E+07   3.57047E-03   0.24342    
    71   4.97248E+07   3.27025E-03   0.22725    
    72   4.99809E+07   2.99599E-03   0.21203    
    73   5.02371E+07   2.74594E-03   0.19775    
    74   5.04933E+07   2.51882E-03   0.18439    
    75   5.07495E+07   2.31271E-03   0.17191    
    76   5.10057E+07   2.12359E-03   0.16030    
    77   5.12618E+07   1.94904E-03   0.14884    
    78   5.15180E+07   1.78793E-03   0.13844    
    79   5.17742E+07   1.63925E-03   0.12898    
    80   5.20304E+07   1.54690E-03   0.12035    
    81   5.22866E+07   1.46151E-03   0.11245    
    82   5.25427E+07   1.38186E-03   0.10520    
    83   5.27989E+07   1.30743E-03   9.85390E-02
    84   5.30551E+07   1.23778E-03   9.24134E-02
    85   5.33113E+07   1.17252E-03   8.67655E-02
    86   5.35675E+07   1.11130E-03   8.15443E-02
    87   5.38236E+07   1.05379E-03   7.67060E-02
    88   5.40798E+07   9.99725E-04   7.22136E-02
    89   5.43360E+07   9.48835E-04   6.80366E-02
    90   5.45922E+07   9.00892E-04   6.41497E-02
    91   5.48484E+07   8.55686E-04   6.05314E-02
    92   5.51045E+07   8.13027E-04   5.73601E-02
    93   5.53607E+07   7.72741E-04   5.44563E-02
    94   5.56169E+07   7.34541E-04   5.16825E-02
    95   5.58731E+07   6.96999E-04   4.90407E-02
    96   5.61293E+07   6.60079E-04   4.65317E-02
    97   5.63854E+07   6.23331E-04   4.41554E-02
    98   5.66416E+07   5.87431E-04   4.19109E-02
    99   5.68978E+07   5.52419E-04   3.97965E-02
   100   5.71540E+07   5.18254E-04   3.78026E-02
   101   5.74102E+07   4.84886E-04   3.59323E-02
   102   5.76663E+07   4.52337E-04   3.41833E-02
   103   5.79225E+07   4.20628E-04   3.25536E-02
   104   5.81787E+07   3.89774E-04   3.10393E-02
   105   5.84349E+07   3.59791E-04   2.96357E-02
   106   5.86911E+07   3.30700E-04   2.83430E-02
   107   5.89472E+07   3.02265E-04   2.71972E-02
   108   5.92034E+07   2.75950E-04   2.61810E-02
   109   5.94596E+07   2.50383E-04   2.52786E-02
   110   5.97158E+07   2.26521E-04   2.44751E-02
   111   5.99720E+07   2.03435E-04   2.37564E-02
   112   6.02281E+07   1.98255E-04   2.31104E-02
   113   6.04843E+07   1.96424E-04   2.25273E-02
   114   6.07405E+07   1.94581E-04   2.19978E-02
   115   6.09967E+07   1.92815E-04   2.15145E-02
   116   6.12529E+07   1.91125E-04   2.10714E-02
   117   6.15090E+07   1.89491E-04   2.06631E-02
   118   6.17652E+07   1.87919E-04   2.02852E-02
   119   6.20214E+07   1.86394E-04   1.99339E-02
   120   6.22776E+07   1.84921E-04   1.96059E-02
   121   6.25338E+07   1.83497E-04   1.92985E-02
   122   6.27899E+07   1.82120E-04   1.90090E-02
   123   6.30461E+07   1.80775E-04   1.87354E-02
   124   6.30720E+07   1.76261E-04   1.87054E-02
